 # Radius (AU) T (K)
    0.10000000150 1299.993
    0.10000000151 1299.807
    0.10000000154 1300.093
    0.10000000159 1300.268
    0.10000000170 1300.782
    0.10000000190 1301.878
    0.10000000232 1303.970
    0.10000000316 1307.506
    0.10000000482 1313.287
    0.10000000816 1322.315
    0.10000001483 1334.240
    0.10000002818 1346.008
    0.10000005486 1350.092
    0.10000010824 1334.489
    0.10000021499 1295.154
    0.10000042850 1248.832
    0.10000085552 1220.859
    0.10000170958 1212.222
    0.10000341775 1208.475
    0.10000683435 1237.309
    0.10001366857 1210.536
    0.10002734110 1200.670
    0.10005470252 1196.639
    0.10010949093 1190.695
    0.10021933086 1182.020
    0.10044007006 1164.681
    0.10088584192 1130.990
    0.10179502237 1065.029
    0.10368787472 934.958
    0.10757831173 718.619
    0.11292481889 532.361
    0.11853704075 438.159
    0.12442818300 385.539
    0.13061210763 354.045
    0.13710336556 334.477
    0.14391723086 316.815
    0.15106973673 299.105
    0.15857771316 289.797
    0.16645882661 280.043
    0.17473162151 270.093
    0.18341556394 260.891
    0.19253108742 248.791
    0.20209964098 238.541
    0.21214373965 225.832
    0.22268701742 217.618
    0.23375428288 213.506
    0.24537157755 207.303
    0.25756623719 195.024
    0.27036695613 188.910
    0.28380385474 181.013
    0.29790855035 176.885
    0.31271423165 172.740
    0.32825573674 165.304
    0.34456963513 160.760
    0.36169431382 153.421
    0.37967006756 148.676
    0.39853919371 144.725
    0.41834609176 140.109
    0.43913736781 134.794
    0.46096194420 130.630
    0.48387117466 125.927
    0.50791896514 121.611
    0.53316190064 118.626
    0.55965937838 114.553
    0.58747374752 110.963
    0.61667045593 108.133
    0.64731820412 105.294
    0.67948910696 102.697
    0.71325886332  97.532
    0.74870693421  94.414
    0.78591672977  90.587
    0.82497580549  88.124
    0.86597606829  85.487
    0.90901399272  82.974
    0.95419084802  80.778
    1.00161293636  78.102
    1.05139184301  76.797
    1.10364469889  74.647
    1.15849445617  72.370
    1.21607017758  70.360
    1.27650734014  68.875
    1.33994815387  66.958
    1.40654189647  65.193
    1.47644526455  63.374
    1.54982274235  62.314
    1.62684698876  60.906
    1.70769924361  59.288
    1.79256975412  57.970
    1.88165822255  56.748
    1.97517427611  55.395
    2.07333796025  54.069
    2.17638025637  52.854
    2.28454362536  51.878
    2.39808257812  50.734
    2.51726427443  49.720
    2.64236915156  48.671
    2.77369158417  47.778
    2.91154057697  46.880
    3.05624049181  46.045
    3.20813181093  45.293
    3.36757193810  44.421
    3.53493603960  43.626
    3.71061792703  42.932
    3.89503098392  41.711
    4.08860913843  40.970
    4.29180788443  40.217
    4.50510535323  39.568
    4.72900343871  38.888
    4.96402897820  38.357
    5.21073499223  37.659
    5.46970198572  37.050
    5.74153931397  36.476
    6.02688661648  35.980
    6.32641532202  35.440
    6.64083022855  34.877
    6.97087116157  34.365
    7.31731471500  33.880
    7.68097607851  33.380
    8.06271095565  32.950
    8.46341757740  32.485
    8.88403881565  32.082
    9.32556440188  31.618
    9.78903325596  31.195
   10.27553593077  30.785
   10.78621717831  30.384
   11.32227864334  29.983
   11.88498169081  29.611
   12.47565037396  29.244
   13.09567454982  28.917
   13.74651314954  28.533
   14.42969761134  28.193
   15.14683548401  27.860
   15.89961420947  27.532
   16.68980509340  27.188
   17.51926747316  26.879
   18.38995309282  26.566
   19.30391069572  26.255
   20.26329084514  25.918
   21.27035098467  25.628
   22.32746075002  25.342
   23.43710754482  25.063
   24.60190239353  24.765
   25.82458608526  24.490
   27.10803562290  24.200
   28.45527099279  23.909
   29.86946227077  23.644
   31.35393708150  23.363
   32.91218842841  23.097
   34.54788291280  22.805
   36.26486936148  22.540
   38.06718788310  22.270
   39.95907937467  22.029
   41.94499550045  21.753
   44.02960916681  21.485
   46.21782551775  21.257
   48.51479347673  21.006
   50.92591786227  20.781
   53.45687210559  20.563
   56.11361160032  20.338
   58.90238771570  20.148
   61.82976250616  19.973
   64.90262415200  19.807
   68.12820316747  19.639
   71.51408941430  19.548
   75.06824996080  19.436
   78.79904782861  19.352
   82.71526167105  19.269
   86.82610642951  19.215
   91.14125501639  19.180
   95.67086107571  19.106
  100.42558287487  19.009
  105.41660838378  18.977
  110.65568160043  18.930
  116.15513018477  18.848
  121.92789446601  18.772
  127.98755789147  18.670
  134.34837898878  18.552
  141.02532491648  18.441
  148.03410668215  18.314
  155.39121611073  18.177
  163.11396465016  18.038
  171.22052410566  17.855
  179.72996939835  17.717
  188.66232344902  17.518
  198.03860429249  17.345
  207.88087453357  17.140
  218.21229326084  16.923
  229.05717054057  16.721
  240.44102461877  16.489
  252.39064196633  16.249
  264.93414030812  16.018
  278.10103478466  15.757
  291.92230740196  15.486
  306.43047993283  15.202
  321.65969044145  14.962
  337.64577361093  14.661
  354.42634506320  14.320
  372.04088986941  13.973
  390.53085545925  13.552
