 # Radius (AU) T (K)
    0.10000000150 1265.493
    0.10000000151 1265.480
    0.10000000154 1265.483
    0.10000000159 1265.551
    0.10000000170 1265.626
    0.10000000190 1265.692
    0.10000000232 1265.851
    0.10000000316 1266.255
    0.10000000482 1266.875
    0.10000000816 1268.120
    0.10000001483 1270.442
    0.10000002818 1274.148
    0.10000005486 1280.531
    0.10000010824 1290.429
    0.10000021499 1304.398
    0.10000042850 1319.954
    0.10000085552 1330.234
    0.10000170958 1325.195
    0.10000341775 1301.963
    0.10000683435 1277.901
    0.10001366857 1266.198
    0.10002734110 1265.760
    0.10005470252 1264.874
    0.10010949093 1263.062
    0.10021933086 1259.311
    0.10044007006 1251.469
    0.10088584192 1234.862
    0.10179502237 1198.642
    0.10368787472 1115.703
    0.10757831173 937.998
    0.11292481889 733.534
    0.11853704075 577.293
    0.12442818300 473.908
    0.13061210763 412.623
    0.13710336556 374.565
    0.14391723086 348.638
    0.15106973673 328.552
    0.15857771316 312.401
    0.16645882661 297.783
    0.17473162151 284.315
    0.18341556394 272.127
    0.19253108742 259.912
    0.20209964098 250.272
    0.21214373965 240.069
    0.22268701742 231.293
    0.23375428288 222.843
    0.24537157755 213.643
    0.25756623719 204.429
    0.27036695613 197.127
    0.28380385474 189.977
    0.29790855035 182.535
    0.31271423165 175.236
    0.32825573674 168.376
    0.34456963513 161.141
    0.36169431382 153.662
    0.37967006756 146.713
    0.39853919371 142.350
    0.41834609176 137.859
    0.43913736781 133.275
    0.46096194420 129.224
    0.48387117466 124.728
    0.50791896514 120.277
    0.53316190064 116.638
    0.55965937838 113.230
    0.58747374752 109.635
    0.61667045593 106.652
    0.64731820412 103.530
    0.67948910696 100.316
    0.71325886332  97.550
    0.74870693421  94.715
    0.78591672977  92.080
    0.82497580549  89.449
    0.86597606829  87.336
    0.90901399272  85.305
    0.95419084802  82.983
    1.00161293636  80.813
    1.05139184301  79.028
    1.10364469889  77.338
    1.15849445617  75.590
    1.21607017758  73.931
    1.27650734014  72.215
    1.33994815387  70.491
    1.40654189647  69.088
    1.47644526455  67.751
    1.54982274235  66.347
    1.62684698876  64.927
    1.70769924361  63.706
    1.79256975412  62.516
    1.88165822255  61.368
    1.97517427611  59.575
    2.07333796025  58.463
    2.17638025637  57.442
    2.28454362536  56.475
    2.39808257812  55.437
    2.51726427443  54.424
    2.64236915156  53.513
    2.77369158417  52.705
    2.91154057697  51.997
    3.05624049181  51.145
    3.20813181093  50.295
    3.36757193810  49.445
    3.53493603960  48.762
    3.71061792703  48.040
    3.89503098392  47.373
    4.08860913843  46.718
    4.29180788443  46.018
    4.50510535323  45.355
    4.72900343871  44.700
    4.96402897820  44.094
    5.21073499223  43.572
    5.46970198572  42.896
    5.74153931397  42.400
    6.02688661648  41.832
    6.32641532202  41.267
    6.64083022855  40.787
    6.97087116157  40.240
    7.31731471500  39.742
    7.68097607851  39.301
    8.06271095565  38.749
    8.46341757740  38.314
    8.88403881565  37.915
    9.32556440188  37.448
    9.78903325596  37.035
   10.27553593077  36.665
   10.78621717831  36.189
   11.32227864334  35.887
   11.88498169081  35.510
   12.47565037396  35.197
   13.09567454982  34.841
   13.74651314954  34.515
   14.42969761134  34.239
   15.14683548401  33.920
   15.89961420947  33.564
   16.68980509340  33.248
   17.51926747316  32.986
   18.38995309282  32.684
   19.30391069572  32.394
   20.26329084514  32.063
   21.27035098467  31.775
   22.32746075002  31.446
   23.43710754482  31.156
   24.60190239353  30.841
   25.82458608526  30.522
   27.10803562290  30.234
   28.45527099279  29.897
   29.86946227077  29.542
   31.35393708150  29.208
   32.91218842841  28.915
   34.54788291280  28.601
   36.26486936148  28.265
   38.06718788310  27.977
   39.95907937467  27.611
   41.94499550045  27.274
   44.02960916681  26.940
   46.21782551775  26.602
   48.51479347673  26.301
   50.92591786227  25.932
   53.45687210559  25.594
   56.11361160032  25.296
   58.90238771570  24.990
   61.82976250616  24.619
   64.90262415200  24.331
   68.12820316747  23.999
   71.51408941430  23.660
   75.06824996080  23.369
   78.79904782861  23.067
   82.71526167105  22.759
   86.82610642951  22.455
   91.14125501639  22.141
   95.67086107571  21.862
  100.42558287487  21.540
  105.41660838378  21.255
  110.65568160043  20.968
  116.15513018477  20.672
  121.92789446601  20.389
  127.98755789147  20.099
  134.34837898878  19.821
  141.02532491648  19.536
  148.03410668215  19.262
  155.39121611073  18.987
  163.11396465016  18.723
  171.22052410566  18.464
  179.72996939835  18.204
  188.66232344902  17.953
  198.03860429249  17.707
  207.88087453357  17.462
  218.21229326084  17.200
  229.05717054057  16.953
  240.44102461877  16.697
  252.39064196633  16.457
  264.93414030812  16.228
  278.10103478466  15.997
  291.92230740196  15.742
  306.43047993283  15.500
  321.65969044145  15.290
  337.64577361093  15.070
  354.42634506320  14.841
  372.04088986941  14.612
  390.53085545925  14.384
