 # z (AU) T (K)
    0.000321913        252.212
    0.000965740        252.401
     0.00160957        252.504
     0.00225339        252.585
     0.00289722        252.761
     0.00354105        253.080
     0.00418487        253.428
     0.00482870        253.681
     0.00547253        254.132
     0.00611635        254.664
     0.00676018        255.160
     0.00740400        255.878
     0.00804783        256.643
     0.00869166        257.559
     0.00933548        258.462
     0.00997931        259.485
      0.0106231        260.595
      0.0112670        262.038
      0.0119108        263.443
      0.0125546        265.255
      0.0131984        267.149
      0.0138423        269.216
      0.0144861        271.489
      0.0151299        273.772
      0.0157737        276.245
      0.0164176        278.739
      0.0170614        281.463
      0.0177052        284.270
      0.0183491        287.340
      0.0189929        290.589
      0.0196367        294.114
      0.0202805        297.992
      0.0209244        302.184
      0.0215682        306.834
      0.0222120        312.136
      0.0228558        318.186
      0.0234997        325.158
      0.0241435        333.515
      0.0247873        343.223
      0.0254311        355.340
      0.0260750        370.444
      0.0267188        388.552
      0.0273626        410.017
      0.0280065        434.307
      0.0286503        460.822
      0.0292941        488.367
      0.0299379        516.088
      0.0305818        543.008
      0.0312256        568.377
      0.0318694        592.078
      0.0325132        613.896
      0.0331571        633.429
      0.0338009        650.714
      0.0344447        665.878
      0.0350885        678.982
      0.0357324        690.104
      0.0363762        699.489
      0.0370200        707.214
      0.0376639        713.413
      0.0383077        718.325
      0.0389515        722.124
      0.0395953        725.046
      0.0402392        727.186
      0.0408830        728.639
      0.0415268        729.617
      0.0421706        730.258
      0.0428145        730.620
      0.0434583        730.681
      0.0441021        730.565
      0.0447459        730.293
      0.0453898        730.054
      0.0460336        729.765
      0.0466774        729.413
      0.0473212        728.960
      0.0479651        728.506
      0.0486089        728.053
      0.0492527        727.570
      0.0498966        727.149
      0.0505404        726.713
      0.0511842        726.256
      0.0518280        725.793
      0.0524719        725.308
      0.0531157        724.820
      0.0537595        724.335
      0.0544033        723.865
      0.0550472        723.390
      0.0556910        722.953
      0.0563348        722.499
      0.0569786        722.077
      0.0576225        721.672
      0.0582663        721.282
      0.0589101        720.838
      0.0595540        720.392
      0.0601978        719.933
      0.0608416        719.446
      0.0614854        719.034
      0.0621293        718.570
      0.0627731        718.119
      0.0634169        717.700
      0.0640607        717.277
